timestamps,TP9,AF7,AF8,TP10,Right AUX
1751533672.608,999.512,999.512,-936.035,-1000.000,0.000
1751533672.612,946.777,999.512,-1000.000,-1000.000,0.000
1751533672.616,-327.637,-85.449,-218.750,-129.883,0.000
1751533672.620,-1000.000,-1000.000,999.512,999.512,0.000
1751533672.624,-171.875,-222.168,609.863,367.188,0.000
1751533672.628,999.512,981.445,-768.555,-940.430,0.000
1751533672.632,999.512,999.512,-1000.000,-1000.000,0.000
1751533672.635,-61.035,82.520,-208.496,-246.094,0.000
1751533672.639,-1000.000,-1000.000,999.512,999.512,0.000
1751533672.643,-252.930,-410.645,845.703,588.867,0.000
1751533672.647,966.309,903.320,-467.285,-808.105,0.000
1751533672.651,999.512,999.512,-1000.000,-1000.000,0.000
1751533672.655,132.812,208.008,-267.578,-211.426,0.000
1751533672.659,-1000.000,-1000.000,984.863,999.512,0.000
1751533672.663,-457.520,-616.211,999.512,833.496,0.000
1751533672.667,885.254,778.809,-167.969,-500.977,0.000
1751533672.671,999.512,999.512,-1000.000,-1000.000,0.000
1751533672.674,208.496,193.359,-395.020,-226.562,0.000
1751533672.678,-1000.000,-1000.000,905.273,999.512,0.000
1751533672.682,-681.152,-884.277,999.512,999.512,0.000
1751533672.686,715.332,441.406,25.879,-195.801,0.000
1751533672.690,999.512,999.512,-1000.000,-1000.000,0.000
1751533672.694,171.875,219.727,-635.742,-426.758,0.000
1751533672.698,-1000.000,-1000.000,715.332,888.672,0.000
1751533672.702,-922.852,-1000.000,999.512,999.512,0.000
1751533672.706,377.441,146.484,142.578,18.066,0.000
1751533672.710,999.512,999.512,-1000.000,-1000.000,0.000
1751533672.714,228.027,361.328,-896.484,-664.062,0.000
1751533672.717,-1000.000,-951.660,405.762,693.848,0.000
1751533672.721,-1000.000,-1000.000,999.512,999.512,0.000
1751533672.725,92.773,33.203,148.926,157.227,0.000
1751533672.729,999.512,999.512,-1000.000,-1000.000,0.000
1751533672.733,407.715,502.930,-1000.000,-922.852,0.000
1751533672.737,-914.062,-842.773,114.258,385.254,0.000
1751533672.741,-1000.000,-1000.000,999.512,999.512,0.000
1751533672.745,-73.242,-186.523,174.805,145.020,0.000
1751533672.749,999.512,999.512,-1000.000,-1000.000,0.000
1751533672.753,627.930,814.941,-1000.000,-1000.000,0.000
1751533672.756,-733.887,-526.855,-95.703,88.379,0.000
1751533672.760,-1000.000,-1000.000,999.512,999.512,0.000
1751533672.764,-201.660,-182.129,344.238,146.973,0.000
1751533672.768,999.512,999.512,-948.730,-1000.000,0.000
1751533672.772,896.484,999.512,-1000.000,-1000.000,0.000
1751533672.776,-414.062,-215.332,-216.309,-125.977,0.000
1751533672.780,-1000.000,-1000.000,999.512,999.512,0.000
1751533672.784,-173.828,-166.992,607.422,373.535,0.000
1751533672.788,999.512,995.605,-770.996,-936.523,0.000
1751533672.792,999.512,999.512,-1000.000,-1000.000,0.000
1751533672.796,-107.422,51.270,-211.426,-246.094,0.000
1751533672.799,-1000.000,-1000.000,999.512,999.512,0.000
1751533672.803,-232.422,-368.652,820.312,573.242,0.000
1751533672.807,972.168,918.457,-510.254,-823.730,0.000
1751533672.811,999.512,999.512,-1000.000,-1000.000,0.000
1751533672.815,105.957,221.191,-228.516,-218.750,0.000
1751533672.819,-1000.000,-1000.000,999.512,999.512,0.000
1751533672.823,-419.922,-569.336,985.352,770.020,0.000
1751533672.827,900.879,827.148,-225.586,-591.797,0.000
1751533672.831,999.512,999.512,-1000.000,-1000.000,0.000
1751533672.835,217.773,201.660,-385.742,-240.234,0.000
1751533672.838,-1000.000,-1000.000,912.109,999.512,0.000
1751533672.842,-566.406,-677.734,999.512,982.910,0.000
1751533672.846,834.473,719.727,-18.555,-252.930,0.000
1751533672.850,999.512,999.512,-1000.000,-1000.000,0.000
1751533672.854,188.965,172.363,-585.938,-406.250,0.000
1751533672.858,-1000.000,-1000.000,759.766,904.785,0.000
1751533672.862,-823.730,-920.898,999.512,999.512,0.000
1751533672.866,531.738,371.582,132.324,-40.039,0.000
1751533672.870,999.512,999.512,-1000.000,-1000.000,0.000
1751533672.874,194.336,295.410,-829.590,-603.516,0.000
1751533672.878,-1000.000,-966.309,500.488,750.977,0.000
1751533672.881,-1000.000,-1000.000,999.512,999.512,0.000
1751533672.885,124.512,-4.395,154.297,134.766,0.000
1751533672.889,999.512,999.512,-1000.000,-1000.000,0.000
1751533672.893,378.418,488.281,-1000.000,-878.418,0.000
1751533672.897,-924.316,-859.863,187.012,442.871,0.000
1751533672.901,-1000.000,-1000.000,999.512,999.512,0.000
1751533672.905,-88.379,-196.289,175.293,147.461,0.000
1751533672.909,999.512,999.512,-1000.000,-1000.000,0.000
1751533672.913,602.051,757.812,-1000.000,-1000.000,0.000
1751533672.917,-764.648,-607.910,-66.406,116.211,0.000
1751533672.921,-1000.000,-1000.000,999.512,999.512,0.000
1751533672.924,-206.055,-186.035,320.801,140.625,0.000
1751533672.928,999.512,999.512,-957.520,-1000.000,0.000
1751533672.932,871.094,986.816,-1000.000,-1000.000,0.000
1751533672.936,-453.613,-256.348,-208.496,-94.238,0.000
1751533672.940,-1000.000,-1000.000,999.512,999.512,0.000
1751533672.944,-175.293,-163.574,508.789,285.156,0.000
1751533672.948,999.512,991.699,-859.863,-976.074,0.000
1751533672.952,999.512,999.512,-1000.000,-1000.000,0.000
1751533672.956,-133.789,71.289,-225.098,-227.539,0.000
1751533672.960,-1000.000,-1000.000,999.512,999.512,0.000
1751533672.964,-170.898,-323.730,733.398,473.633,0.000
1751533672.967,997.559,946.777,-628.906,-897.949,0.000
1751533672.971,999.512,999.512,-1000.000,-1000.000,0.000
1751533672.975,59.082,179.199,-223.633,-228.027,0.000
1751533672.979,-1000.000,-1000.000,999.512,999.512,0.000
1751533672.983,-358.887,-505.859,953.613,735.352,0.000
1751533672.987,925.293,864.258,-287.109,-638.672,0.000
1751533672.991,999.512,999.512,-1000.000,-1000.000,0.000
1751533672.995,215.332,206.543,-344.238,-210.449,0.000
1751533672.999,-1000.000,-1000.000,930.664,999.512,0.000
1751533673.003,-556.152,-662.598,999.512,967.285,0.000
1751533673.006,839.844,731.445,-20.020,-275.391,0.000
1751533673.010,999.512,999.512,-1000.000,-1000.000,0.000
1751533673.014,195.801,210.449,-520.996,-337.402,0.000
1751533673.018,-1000.000,-1000.000,829.102,958.008,0.000
1751533673.022,-758.789,-935.547,999.512,999.512,0.000
1751533673.026,622.070,363.281,66.895,-150.391,0.000
1751533673.030,999.512,999.512,-1000.000,-1000.000,0.000
1751533673.034,160.645,267.090,-770.020,-527.344,0.000
1751533673.038,-1000.000,-993.164,563.965,824.219,0.000
1751533673.042,-984.863,-1000.000,999.512,999.512,0.000
1751533673.046,258.789,85.449,148.438,47.363,0.000
1751533673.049,999.512,999.512,-1000.000,-1000.000,0.000
1751533673.053,317.871,457.031,-982.910,-786.621,0.000
1751533673.057,-958.496,-874.023,261.719,549.316,0.000
1751533673.061,-1000.000,-1000.000,999.512,999.512,0.000
1751533673.065,-18.555,-145.996,154.297,154.785,0.000
1751533673.069,999.512,999.512,-1000.000,-1000.000,0.000
1751533673.073,512.207,727.539,-1000.000,-1000.000,0.000
1751533673.077,-840.820,-631.836,-7.324,205.078,0.000
1751533673.081,-1000.000,-1000.000,999.512,999.512,0.000
1751533673.085,-213.379,-185.059,329.590,147.949,0.000
1751533673.089,999.512,999.512,-950.195,-1000.000,0.000
1751533673.092,840.820,996.094,-1000.000,-1000.000,0.000
1751533673.096,-498.535,-237.305,-177.734,-30.762,0.000
1751533673.100,-1000.000,-1000.000,999.512,999.512,0.000
1751533673.104,-180.176,-171.387,487.305,270.508,0.000
1751533673.108,999.512,999.512,-872.070,-975.098,0.000
1751533673.112,999.512,999.512,-1000.000,-1000.000,0.000
1751533673.116,-193.359,-38.574,-229.492,-229.492,0.000
1751533673.120,-1000.000,-1000.000,999.512,999.512,0.000
1751533673.124,-170.898,-236.328,647.949,400.391,0.000
1751533673.128,999.512,976.562,-732.422,-939.453,0.000
1751533673.131,999.512,999.512,-1000.000,-1000.000,0.000
1751533673.135,0.488,119.629,-212.402,-237.305,0.000
1751533673.139,-1000.000,-1000.000,999.512,999.512,0.000
1751533673.143,-295.410,-358.398,940.430,701.660,0.000
1751533673.147,948.730,934.082,-308.594,-683.594,0.000
1751533673.151,999.512,999.512,-1000.000,-1000.000,0.000
1751533673.155,196.289,210.938,-313.477,-192.871,0.000
1751533673.159,-1000.000,-1000.000,950.195,999.512,0.000
1751533673.163,-555.664,-751.953,999.512,939.453,0.000
1751533673.167,835.938,628.418,-57.617,-314.941,0.000
1751533673.171,999.512,999.512,-1000.000,-1000.000,0.000
1751533673.174,189.453,162.109,-502.441,-333.496,0.000
1751533673.178,-1000.000,-1000.000,831.055,939.941,0.000
1751533673.182,-824.219,-979.004,999.512,999.512,0.000
1751533673.186,536.621,273.438,118.652,-45.410,0.000
1751533673.190,999.512,999.512,-1000.000,-1000.000,0.000
1751533673.194,155.273,271.484,-749.023,-518.066,0.000
1751533673.198,-1000.000,-991.211,602.539,835.938,0.000
1751533673.202,-1000.000,-1000.000,999.512,999.512,0.000
1751533673.206,214.355,65.918,155.273,104.492,0.000
1751533673.210,999.512,999.512,-1000.000,-1000.000,0.000
1751533673.213,308.594,424.805,-970.215,-784.180,0.000
1751533673.217,-971.680,-902.832,288.086,568.359,0.000
1751533673.221,-1000.000,-1000.000,999.512,999.512,0.000
1751533673.225,28.320,-98.145,146.973,149.414,0.000
1751533673.229,999.512,999.512,-1000.000,-1000.000,0.000
1751533673.233,484.863,680.664,-1000.000,-983.398,0.000
1751533673.237,-864.258,-677.246,63.477,280.273,0.000
1751533673.241,-1000.000,-1000.000,999.512,999.512,0.000
1751533673.245,-140.625,-191.895,240.234,140.625,0.000
1751533673.249,999.512,999.512,-986.328,-1000.000,0.000
1751533673.253,742.188,880.371,-1000.000,-1000.000,0.000
1751533673.256,-613.281,-437.500,-161.133,3.906,0.000
1751533673.260,-1000.000,-1000.000,999.512,999.512,0.000
1751533673.264,-187.988,-173.828,423.828,205.078,0.000
1751533673.268,999.512,999.512,-914.551,-1000.000,0.000
1751533673.272,975.586,999.512,-1000.000,-1000.000,0.000
1751533673.276,-276.367,-117.188,-223.145,-198.730,0.000
1751533673.280,-1000.000,-1000.000,999.512,999.512,0.000
1751533673.284,-169.922,-182.129,697.754,449.219,0.000
1751533673.288,999.512,990.723,-675.293,-907.227,0.000
1751533673.292,999.512,999.512,-1000.000,-1000.000,0.000
1751533673.295,-18.555,99.121,-201.172,-235.352,0.000
1751533673.299,-1000.000,-1000.000,999.512,999.512,0.000
1751533673.303,-296.875,-380.859,907.715,666.016,0.000
1751533673.307,948.730,919.434,-369.141,-727.051,0.000
1751533673.311,999.512,999.512,-1000.000,-1000.000,0.000
1751533673.315,171.875,214.355,-285.645,-203.613,0.000
1751533673.319,-1000.000,-1000.000,971.680,999.512,0.000
1751533673.323,-514.648,-685.059,999.512,868.164,0.000
1751533673.327,858.398,709.961,-122.070,-440.430,0.000
1751533673.331,999.512,999.512,-1000.000,-1000.000,0.000
1751533673.335,199.219,173.340,-444.824,-293.457,0.000
1751533673.338,-1000.000,-1000.000,875.488,969.727,0.000
1751533673.342,-747.559,-916.992,999.512,999.512,0.000
1751533673.346,637.207,389.648,67.383,-145.508,0.000
1751533673.350,999.512,999.512,-1000.000,-1000.000,0.000
1751533673.354,167.480,211.426,-683.105,-469.727,0.000
1751533673.358,-1000.000,-1000.000,671.387,861.328,0.000
1751533673.362,-939.941,-1000.000,999.512,999.512,0.000
1751533673.366,345.703,122.070,152.344,54.199,0.000
1751533673.370,999.512,999.512,-1000.000,-1000.000,0.000
1751533673.374,272.461,388.184,-925.293,-714.355,0.000
1751533673.378,-989.258,-925.781,366.211,640.625,0.000
1751533673.381,-1000.000,-1000.000,999.512,999.512,0.000
1751533673.385,71.289,-53.711,146.484,156.250,0.000
1751533673.389,999.512,999.512,-1000.000,-1000.000,0.000
1751533673.393,438.965,573.242,-1000.000,-961.914,0.000
1751533673.397,-893.066,-788.574,80.566,319.336,0.000
1751533673.401,-1000.000,-1000.000,999.512,999.512,0.000
1751533673.405,-107.422,-193.359,214.355,145.508,0.000
1751533673.409,999.512,999.512,-1000.000,-1000.000,0.000
1751533673.413,675.293,868.164,-1000.000,-1000.000,0.000
1751533673.417,-687.012,-453.125,-105.469,78.125,0.000
1751533673.420,-1000.000,-1000.000,999.512,999.512,0.000
1751533673.424,-196.777,-177.734,404.297,188.477,0.000
1751533673.428,999.512,999.512,-917.969,-1000.000,0.000
1751533673.432,924.316,999.512,-1000.000,-1000.000,0.000
1751533673.436,-368.164,-164.062,-223.145,-150.879,0.000
1751533673.440,-1000.000,-1000.000,999.512,999.512,0.000
1751533673.444,-172.852,-205.078,598.145,366.699,0.000
1751533673.448,999.512,984.375,-783.203,-943.848,0.000
1751533673.452,999.512,999.512,-1000.000,-1000.000,0.000
1751533673.456,-86.914,58.105,-209.473,-246.094,0.000
1751533673.460,-1000.000,-1000.000,999.512,999.512,0.000
1751533673.463,-246.094,-384.766,841.797,589.355,0.000
1751533673.467,966.309,912.109,-476.074,-807.617,0.000
1751533673.471,999.512,999.512,-1000.000,-1000.000,0.000
1751533673.475,133.301,216.797,-238.281,-212.891,0.000
1751533673.479,-1000.000,-1000.000,999.512,999.512,0.000
1751533673.483,-455.566,-637.695,999.512,814.453,0.000
1751533673.487,886.230,760.254,-182.617,-524.414,0.000
1751533673.491,999.512,999.512,-1000.000,-1000.000,0.000
1751533673.495,208.008,180.176,-416.016,-252.930,0.000
1751533673.499,-1000.000,-1000.000,891.113,989.258,0.000
1751533673.502,-690.918,-873.535,999.512,999.512,0.000
1751533673.506,704.590,459.961,37.109,-167.480,0.000
1751533673.510,999.512,999.512,-1000.000,-1000.000,0.000
1751533673.514,171.387,172.363,-646.973,-434.082,0.000
1751533673.518,-1000.000,-1000.000,706.055,883.789,0.000
1751533673.522,-923.828,-1000.000,999.512,999.512,0.000
1751533673.526,376.465,164.062,148.926,43.945,0.000
1751533673.530,999.512,999.512,-1000.000,-1000.000,0.000
1751533673.534,227.051,348.145,-890.137,-656.738,0.000
1751533673.538,-1000.000,-938.477,417.480,708.984,0.000
1751533673.541,-1000.000,-1000.000,999.512,999.512,0.000
1751533673.545,72.754,-83.984,149.414,151.367,0.000
1751533673.549,999.512,999.512,-1000.000,-1000.000,0.000
1751533673.553,407.227,524.414,-1000.000,-920.898,0.000
1751533673.557,-912.598,-845.703,120.117,386.719,0.000
1751533673.561,-1000.000,-1000.000,999.512,999.512,0.000
1751533673.565,-99.609,-169.922,209.961,144.531,0.000
1751533673.569,999.512,999.512,-1000.000,-1000.000,0.000
1751533673.573,631.836,769.043,-1000.000,-1000.000,0.000
1751533673.577,-734.863,-587.402,-100.098,83.984,0.000
1751533673.581,-1000.000,-1000.000,999.512,999.512,0.000
1751533673.584,-201.660,-179.688,350.098,155.762,0.000
1751533673.588,999.512,999.512,-947.266,-1000.000,0.000
1751533673.592,897.461,999.512,-1000.000,-1000.000,0.000
1751533673.596,-412.598,-182.129,-213.867,-118.652,0.000
1751533673.600,-1000.000,-1000.000,999.512,999.512,0.000
1751533673.604,-173.828,-168.457,568.359,346.680,0.000
1751533673.608,999.512,991.699,-811.035,-950.684,0.000
1751533673.612,999.512,999.512,-1000.000,-1000.000,0.000
1751533673.616,-106.445,91.797,-217.285,-238.281,0.000
1751533673.620,-1000.000,-1000.000,999.512,999.512,0.000
1751533673.624,-208.008,-361.816,781.250,508.301,0.000
1751533673.627,982.910,930.664,-565.430,-879.883,0.000
1751533673.631,999.512,999.512,-1000.000,-1000.000,0.000
1751533673.635,89.355,190.430,-236.816,-219.727,0.000
1751533673.639,-1000.000,-1000.000,999.512,999.512,0.000
1751533673.643,-405.273,-512.695,994.629,797.852,0.000
1751533673.647,906.250,862.793,-210.449,-553.223,0.000
1751533673.651,999.512,999.512,-1000.000,-1000.000,0.000
1751533673.655,218.262,196.777,-375.488,-235.352,0.000
1751533673.659,-1000.000,-1000.000,920.410,999.512,0.000
1751533673.663,-582.520,-784.668,999.512,963.379,0.000
1751533673.667,819.824,588.867,-28.809,-284.180,0.000
1751533673.670,999.512,999.512,-1000.000,-1000.000,0.000
1751533673.674,188.965,163.574,-576.660,-401.367,0.000
1751533673.678,-1000.000,-1000.000,772.461,913.086,0.000
1751533673.682,-813.477,-960.449,999.512,999.512,0.000
1751533673.686,546.387,302.734,104.004,-80.566,0.000
1751533673.690,999.512,999.512,-1000.000,-1000.000,0.000
1751533673.694,187.500,296.875,-812.988,-581.055,0.000
1751533673.698,-1000.000,-984.863,517.578,766.113,0.000
1751533673.702,-1000.000,-1000.000,999.512,999.512,0.000
1751533673.706,183.594,95.215,155.762,137.207,0.000
1751533673.710,999.512,999.512,-1000.000,-1000.000,0.000
1751533673.713,367.188,465.820,-1000.000,-859.375,0.000
1751533673.717,-928.223,-861.816,204.102,471.191,0.000
1751533673.721,-1000.000,-1000.000,999.512,999.512,0.000
1751533673.725,-74.219,-196.777,169.434,149.414,0.000
1751533673.729,999.512,999.512,-1000.000,-1000.000,0.000
1751533673.733,585.938,766.113,-1000.000,-1000.000,0.000
1751533673.737,-778.809,-597.656,-42.480,141.602,0.000
1751533673.741,-1000.000,-1000.000,999.512,999.512,0.000
1751533673.745,-206.543,-173.828,314.453,144.531,0.000
1751533673.749,999.512,999.512,-960.449,-1000.000,0.000
1751533673.753,872.559,999.512,-1000.000,-1000.000,0.000
1751533673.756,-450.684,-98.633,-181.152,-14.648,0.000
1751533673.760,-1000.000,-1000.000,999.512,999.512,0.000
1751533673.764,-176.270,-190.918,521.973,286.621,0.000
1751533673.768,999.512,999.512,-845.215,-964.844,0.000
1751533673.772,999.512,999.512,-1000.000,-1000.000,0.000
1751533673.776,-142.090,-11.719,-221.191,-242.676,0.000
1751533673.780,-1000.000,-1000.000,999.512,999.512,0.000
1751533673.784,-178.223,-314.453,766.113,506.836,0.000
1751533673.788,994.141,940.430,-588.379,-880.859,0.000
1751533673.792,999.512,999.512,-1000.000,-1000.000,0.000
1751533673.795,60.059,184.082,-220.215,-225.586,0.000
1751533673.799,-1000.000,-1000.000,999.512,999.512,0.000
1751533673.803,-365.234,-499.512,963.867,743.164,0.000
1751533673.807,944.336,892.090,-300.781,-657.227,0.000
1751533673.811,999.512,999.512,-1000.000,-1000.000,0.000
1751533673.815,127.930,111.328,-251.465,-119.629,0.000
1751533673.819,-1000.000,-1000.000,928.223,999.512,0.000
1751533673.823,-562.988,-769.531,999.512,935.547,0.000
1751533673.827,833.496,604.980,-57.129,-322.754,0.000
1751533673.831,999.512,999.512,-1000.000,-1000.000,0.000
1751533673.835,189.453,162.598,-539.062,-359.863,0.000
1751533673.838,-1000.000,-1000.000,801.270,928.711,0.000
1751533673.842,-822.266,-972.656,999.512,999.512,0.000
1751533673.846,539.062,286.621,117.188,-57.129,0.000
1751533673.850,999.512,999.512,-1000.000,-1000.000,0.000
1751533673.854,160.156,260.254,-789.062,-548.340,0.000
1751533673.858,-1000.000,-991.699,553.223,809.570,0.000
1751533673.862,-1000.000,-1000.000,999.512,999.512,0.000
1751533673.866,200.195,42.480,153.809,94.238,0.000
1751533673.870,999.512,999.512,-1000.000,-1000.000,0.000
1751533673.874,334.961,528.809,-972.168,-765.625,0.000
1751533673.878,-951.172,-816.895,283.203,586.426,0.000
1751533673.881,-1000.000,-1000.000,999.512,999.512,0.000
1751533673.885,-26.855,-149.902,157.715,159.668,0.000
1751533673.889,999.512,999.512,-1000.000,-1000.000,0.000
1751533673.893,528.809,833.496,-1000.000,-994.629,0.000
1751533673.897,-828.125,-489.258,31.250,263.184,0.000
1751533673.901,-1000.000,-1000.000,999.512,999.512,0.000
1751533673.905,-204.590,-187.500,281.250,139.160,0.000
1751533673.909,999.512,999.512,-968.262,-1000.000,0.000
1751533673.913,805.176,970.703,-1000.000,-1000.000,0.000
1751533673.917,-547.363,-284.180,-181.152,-27.344,0.000
1751533673.921,-1000.000,-1000.000,999.512,999.512,0.000
1751533673.924,-181.641,-170.410,487.793,268.066,0.000
1751533673.928,999.512,999.512,-872.070,-976.074,0.000
1751533673.932,999.512,999.512,-1000.000,-1000.000,0.000
1751533673.936,-208.496,-35.156,-221.680,-223.633,0.000
1751533673.940,-1000.000,-1000.000,999.512,999.512,0.000
1751533673.944,-169.434,-215.332,734.375,488.770,0.000
1751533673.948,999.023,982.422,-629.395,-888.672,0.000
1751533673.952,999.512,999.512,-1000.000,-1000.000,0.000
1751533673.956,8.789,141.113,-214.355,-232.422,0.000
1751533673.960,-1000.000,-1000.000,999.512,999.512,0.000
1751533673.963,-331.543,-475.586,916.016,672.363,0.000
1751533673.967,933.594,875.488,-357.910,-719.238,0.000
1751533673.971,999.512,999.512,-1000.000,-1000.000,0.000
1751533673.975,196.289,208.008,-307.129,-197.754,0.000
1751533673.979,-1000.000,-1000.000,954.102,999.512,0.000
1751533673.983,-536.621,-672.363,999.512,913.086,0.000
1751533673.987,848.633,725.586,-78.125,-363.281,0.000
1751533673.991,999.512,999.512,-1000.000,-1000.000,0.000
1751533673.995,194.336,166.992,-488.281,-325.684,0.000
1751533673.999,-1000.000,-1000.000,844.727,955.078,0.000
1751533674.003,-789.551,-964.844,999.512,999.512,0.000
1751533674.006,582.520,300.293,82.520,-126.953,0.000
1751533674.010,999.512,999.512,-1000.000,-1000.000,0.000
1751533674.014,156.738,249.023,-733.398,-508.301,0.000
1751533674.018,-1000.000,-997.559,613.281,836.426,0.000
1751533674.022,-1000.000,-1000.000,999.512,999.512,0.000
1751533674.026,224.121,54.199,156.250,78.125,0.000
1751533674.030,999.512,999.512,-1000.000,-1000.000,0.000
1751533674.034,308.105,515.625,-941.895,-716.309,0.000
1751533674.038,-967.285,-833.984,340.332,641.602,0.000
1751533674.042,-1000.000,-1000.000,999.512,999.512,0.000
1751533674.046,0.488,-114.258,149.902,160.645,0.000
1751533674.049,999.512,999.512,-1000.000,-1000.000,0.000
1751533674.053,491.699,659.668,-1000.000,-1000.000,0.000
1751533674.057,-860.352,-707.031,40.039,253.418,0.000
1751533674.061,-1000.000,-1000.000,999.512,999.512,0.000
1751533674.065,-165.039,-201.172,244.629,141.113,0.000
1751533674.069,999.512,999.512,-986.816,-1000.000,0.000
1751533674.073,753.418,895.020,-1000.000,-1000.000,0.000
1751533674.077,-604.980,-416.992,-158.203,1.953,0.000
1751533674.081,-1000.000,-1000.000,999.512,999.512,0.000
1751533674.085,-186.523,-173.828,438.965,228.516,0.000
1751533674.089,999.512,999.512,-905.762,-992.188,0.000
1751533674.092,981.445,999.512,-1000.000,-1000.000,0.000
1751533674.096,-265.137,-112.793,-224.121,-199.707,0.000
1751533674.100,-1000.000,-1000.000,999.512,999.512,0.000
1751533674.104,-169.922,-201.172,676.270,437.988,0.000
1751533674.108,999.512,979.492,-702.148,-914.551,0.000
1751533674.112,999.512,999.512,-1000.000,-1000.000,0.000
1751533674.116,-20.020,144.043,-200.195,-237.793,0.000
1751533674.120,-1000.000,-1000.000,999.512,999.512,0.000
1751533674.124,-305.176,-443.359,899.414,649.414,0.000
1751533674.128,944.824,894.531,-381.836,-747.559,0.000
1751533674.132,999.512,999.512,-1000.000,-1000.000,0.000
1751533674.135,168.945,210.449,-283.691,-203.613,0.000
1751533674.139,-1000.000,-1000.000,971.680,999.512,0.000
1751533674.143,-511.719,-676.758,999.512,870.117,0.000
1751533674.147,859.375,719.727,-120.605,-437.500,0.000
1751533674.151,999.512,999.512,-1000.000,-1000.000,0.000
1751533674.155,199.707,174.805,-448.730,-296.387,0.000
1751533674.159,-1000.000,-1000.000,873.535,963.379,0.000
1751533674.163,-749.023,-901.855,999.512,999.512,0.000
1751533674.167,634.766,406.738,71.289,-118.652,0.000
1751533674.171,999.512,999.512,-1000.000,-1000.000,0.000
1751533674.174,165.039,262.695,-664.062,-446.289,0.000
1751533674.178,-1000.000,-993.652,693.848,879.395,0.000
1751533674.182,-955.078,-1000.000,999.512,999.512,0.000
1751533674.186,318.848,89.844,151.367,40.039,0.000
1751533674.190,999.512,999.512,-1000.000,-1000.000,0.000
1751533674.194,270.020,384.277,-928.711,-716.309,0.000
1751533674.198,-989.258,-924.316,359.863,635.742,0.000
1751533674.202,-1000.000,-1000.000,999.512,999.512,0.000
1751533674.206,60.547,-96.680,147.949,150.879,0.000
1751533674.210,999.512,999.512,-1000.000,-1000.000,0.000
1751533674.214,441.406,594.238,-1000.000,-950.684,0.000
1751533674.217,-892.090,-779.297,96.680,336.914,0.000
1751533674.221,-1000.000,-1000.000,999.512,999.512,0.000
1751533674.225,-110.352,-166.504,222.656,143.066,0.000
1751533674.229,999.512,999.512,-994.629,-1000.000,0.000
1751533674.233,679.688,835.449,-1000.000,-1000.000,0.000
1751533674.237,-682.617,-493.164,-127.930,52.246,0.000
1751533674.241,-1000.000,-1000.000,999.512,999.512,0.000
1751533674.245,-195.801,-176.270,390.137,184.082,0.000
1751533674.249,999.512,999.512,-928.711,-1000.000,0.000
1751533674.253,928.223,999.512,-1000.000,-1000.000,0.000
1751533674.257,-360.840,-142.578,-221.680,-140.137,0.000
1751533674.260,-1000.000,-1000.000,999.512,999.512,0.000
1751533674.264,-171.387,-197.266,619.141,382.812,0.000
1751533674.268,999.512,981.934,-761.230,-934.570,0.000
1751533674.272,999.512,999.512,-1000.000,-1000.000,0.000
1751533674.276,-63.477,114.746,-209.473,-241.699,0.000
1751533674.280,-1000.000,-1000.000,999.512,999.512,0.000
1751533674.284,-249.512,-416.992,835.449,578.613,0.000
1751533674.288,968.262,904.297,-483.398,-816.895,0.000
1751533674.292,999.512,999.512,-1000.000,-1000.000,0.000
1751533674.296,120.605,206.055,-260.254,-211.426,0.000
1751533674.300,-1000.000,-1000.000,989.258,999.512,0.000
1751533674.303,-455.566,-618.652,999.512,835.449,0.000
1751533674.307,884.277,776.367,-176.758,-498.535,0.000
1751533674.311,999.512,999.512,-1000.000,-1000.000,0.000
1751533674.315,208.008,186.035,-390.625,-222.656,0.000
1751533674.319,-1000.000,-1000.000,906.250,999.512,0.000
1751533674.323,-687.500,-876.953,999.512,999.512,0.000
1751533674.327,708.496,452.637,28.809,-186.523,0.000
1751533674.331,999.512,999.512,-1000.000,-1000.000,0.000
1751533674.335,171.875,199.219,-635.254,-428.711,0.000
1751533674.338,-1000.000,-1000.000,716.797,890.625,0.000
1751533674.343,-922.852,-1000.000,999.512,999.512,0.000
1751533674.346,377.930,127.441,139.648,3.906,0.000
1751533674.350,999.512,999.512,-1000.000,-1000.000,0.000
1751533674.354,222.168,352.051,-887.695,-653.320,0.000
1751533674.358,-1000.000,-953.613,417.969,702.637,0.000
1751533674.362,-1000.000,-1000.000,999.512,999.512,0.000
1751533674.366,78.613,12.207,149.902,164.551,0.000
1751533674.370,999.512,999.512,-1000.000,-1000.000,0.000
1751533674.374,409.668,530.762,-1000.000,-920.410,0.000
1751533674.378,-909.668,-816.895,126.953,391.113,0.000
1751533674.381,-1000.000,-1000.000,999.512,999.512,0.000
1751533674.385,-105.957,-201.172,188.965,144.531,0.000
1751533674.389,999.512,999.512,-1000.000,-1000.000,0.000
1751533674.393,636.230,802.734,-1000.000,-1000.000,0.000
1751533674.397,-734.863,-548.828,-97.168,84.473,0.000
1751533674.401,-1000.000,-1000.000,999.512,999.512,0.000
1751533674.405,-181.641,-182.617,280.273,141.602,0.000
1751533674.409,999.512,999.512,-979.004,-1000.000,0.000
1751533674.413,875.977,999.512,-1000.000,-1000.000,0.000
1751533674.417,-438.965,-224.121,-216.797,-104.492,0.000
1751533674.421,-1000.000,-1000.000,999.512,999.512,0.000
1751533674.424,-175.293,-169.434,503.906,270.020,0.000
1751533674.428,999.512,999.512,-863.770,-981.445,0.000
1751533674.432,999.512,999.512,-1000.000,-1000.000,0.000
1751533674.436,-124.512,4.395,-216.797,-248.047,0.000
1751533674.440,-1000.000,-1000.000,999.512,999.512,0.000
1751533674.444,-230.469,-363.770,824.219,574.707,0.000
1751533674.448,972.168,915.039,-504.883,-820.801,0.000
1751533674.452,999.512,999.512,-1000.000,-1000.000,0.000
1751533674.456,100.586,210.938,-208.008,-199.707,0.000
1751533674.460,-1000.000,-1000.000,990.723,999.512,0.000
1751533674.464,-529.297,-732.422,999.512,937.012,0.000
1751533674.467,836.426,651.855,-72.754,-332.520,0.000
1751533674.471,999.512,999.512,-1000.000,-1000.000,0.000
1751533674.475,204.102,181.152,-412.598,-252.441,0.000
1751533674.479,-1000.000,-1000.000,906.738,999.512,0.000
1751533674.483,-656.738,-829.590,999.512,999.512,0.000
1751533674.487,742.188,523.926,4.883,-205.566,0.000
1751533674.491,999.512,999.512,-1000.000,-1000.000,0.000
1751533674.495,182.617,188.965,-608.887,-422.363,0.000
1751533674.499,-1000.000,-1000.000,739.746,895.996,0.000
1751533674.503,-841.797,-924.316,999.512,999.512,0.000
1751533674.507,505.371,374.023,138.184,-18.066,0.000
1751533674.510,999.512,999.512,-1000.000,-1000.000,0.000
1751533674.514,201.660,292.969,-850.098,-619.629,0.000
1751533674.518,-1000.000,-967.773,472.656,740.234,0.000
1751533674.522,-1000.000,-1000.000,999.512,999.512,0.000
1751533674.526,149.414,-1.465,154.785,124.023,0.000
1751533674.530,999.512,999.512,-1000.000,-1000.000,0.000
1751533674.534,376.953,490.723,-1000.000,-863.281,0.000
1751533674.538,-929.199,-860.840,193.848,461.914,0.000
1751533674.542,-1000.000,-1000.000,999.512,999.512,0.000
1751533674.546,-48.828,-171.387,169.922,149.414,0.000
1751533674.549,999.512,999.512,-1000.000,-1000.000,0.000
1751533674.553,579.102,760.742,-1000.000,-1000.000,0.000
1751533674.557,-782.227,-597.656,-42.480,145.020,0.000
1751533674.561,-1000.000,-1000.000,999.512,999.512,0.000
1751533674.565,-201.172,-181.152,305.664,141.602,0.000
1751533674.569,999.512,999.512,-962.891,-1000.000,0.000
1751533674.573,859.863,999.512,-1000.000,-1000.000,0.000
1751533674.577,-468.750,-194.336,-196.289,-54.199,0.000
1751533674.581,-1000.000,-1000.000,999.512,999.512,0.000
1751533674.585,-176.758,-168.945,508.301,280.762,0.000
1751533674.589,999.512,998.047,-857.422,-973.145,0.000
1751533674.592,999.512,999.512,-1000.000,-1000.000,0.000
1751533674.596,-147.461,39.062,-223.633,-230.957,0.000
1751533674.600,-1000.000,-1000.000,999.512,999.512,0.000
1751533674.604,-178.711,-339.355,753.418,490.723,0.000
1751533674.608,994.629,938.477,-604.980,-888.184,0.000
1751533674.612,999.512,999.512,-1000.000,-1000.000,0.000
1751533674.616,52.246,161.621,-221.680,-225.098,0.000
1751533674.620,-1000.000,-1000.000,999.512,999.512,0.000
1751533674.624,-372.070,-518.555,970.215,754.395,0.000
1751533674.628,917.969,854.492,-256.348,-614.746,0.000
1751533674.631,999.512,999.512,-1000.000,-1000.000,0.000
1751533674.635,213.867,203.613,-345.703,-209.473,0.000
1751533674.639,-1000.000,-1000.000,927.734,999.512,0.000
1751533674.643,-580.078,-694.336,999.512,989.258,0.000
1751533674.647,820.801,700.684,2.441,-231.934,0.000
1751533674.651,999.512,999.512,-1000.000,-1000.000,0.000
1751533674.655,185.547,160.645,-557.617,-378.418,0.000
1751533674.659,-1000.000,-1000.000,792.480,920.410,0.000
1751533674.663,-847.656,-1000.000,999.512,999.512,0.000
1751533674.667,500.000,224.609,127.441,-40.039,0.000
1751533674.671,999.512,999.512,-1000.000,-1000.000,0.000
1751533674.674,174.316,291.992,-784.180,-554.199,0.000
1751533674.678,-1000.000,-975.098,562.012,801.758,0.000
1751533674.682,-1000.000,-1000.000,999.512,999.512,0.000
1751533674.686,165.527,4.395,153.320,122.559,0.000
1751533674.690,999.512,999.512,-1000.000,-1000.000,0.000
1751533674.694,342.285,461.914,-1000.000,-830.078,0.000
1751533674.698,-949.219,-881.348,223.145,508.789,0.000
1751533674.702,-1000.000,-1000.000,999.512,999.512,0.000
1751533674.706,-23.926,-148.438,157.227,153.809,0.000
1751533674.710,999.512,999.512,-1000.000,-1000.000,0.000
1751533674.713,517.090,729.004,-1000.000,-1000.000,0.000
1751533674.717,-840.820,-630.859,-13.672,195.801,0.000
1751533674.721,-1000.000,-1000.000,999.512,999.512,0.000
1751533674.725,-191.895,-177.734,290.039,143.555,0.000
1751533674.729,999.512,999.512,-970.703,-1000.000,0.000
1751533674.733,812.500,999.512,-1000.000,-1000.000,0.000
1751533674.737,-533.203,-144.043,-165.039,18.555,0.000
1751533674.741,-1000.000,-1000.000,999.512,999.512,0.000
1751533674.745,-183.105,-180.176,446.289,216.309,0.000
1751533674.749,999.512,999.512,-901.855,-992.188,0.000
1751533674.753,999.512,999.512,-1000.000,-1000.000,0.000
1751533674.756,-227.539,-79.590,-229.004,-229.492,0.000
1751533674.760,-1000.000,-1000.000,999.512,999.512,0.000
1751533674.764,-169.434,-264.160,695.801,451.172,0.000
1751533674.768,999.512,960.449,-677.246,-911.133,0.000
1751533674.772,999.512,999.512,-1000.000,-1000.000,0.000
1751533674.776,0.488,126.953,-209.473,-229.980,0.000
1751533674.780,-1000.000,-1000.000,999.512,999.512,0.000
1751533674.784,-335.938,-412.598,958.496,736.328,0.000
1751533674.788,930.176,908.203,-276.855,-640.137,0.000
1751533674.792,999.512,999.512,-1000.000,-1000.000,0.000
1751533674.796,198.730,206.055,-320.801,-192.383,0.000
1751533674.799,-1000.000,-1000.000,948.730,999.512,0.000
1751533674.803,-556.641,-759.277,999.512,936.035,0.000
1751533674.807,836.426,619.629,-60.547,-320.801,0.000
1751533674.811,999.512,999.512,-1000.000,-1000.000,0.000
1751533674.815,189.941,165.039,-512.207,-335.938,0.000
1751533674.819,-1000.000,-1000.000,823.242,939.453,0.000
1751533674.823,-817.871,-954.102,999.512,999.512,0.000
1751533674.827,545.410,316.895,114.258,-49.805,0.000
1751533674.831,999.512,999.512,-1000.000,-1000.000,0.000
1751533674.835,156.738,275.391,-745.605,-519.043,0.000
1751533674.839,-1000.000,-986.328,605.957,839.355,0.000
1751533674.842,-1000.000,-1000.000,999.512,999.512,0.000
1751533674.846,228.516,56.152,151.855,68.848,0.000
1751533674.850,999.512,999.512,-1000.000,-1000.000,0.000
1751533674.854,306.641,411.133,-972.656,-777.832,0.000
1751533674.858,-970.215,-911.133,282.715,566.406,0.000
1751533674.862,-1000.000,-1000.000,999.512,999.512,0.000
1751533674.866,18.066,-109.863,146.484,155.273,0.000
1751533674.870,999.512,999.512,-1000.000,-1000.000,0.000
1751533674.874,483.887,671.875,-1000.000,-991.211,0.000
1751533674.878,-862.305,-688.477,52.246,268.555,0.000
1751533674.881,-1000.000,-1000.000,999.512,999.512,0.000
1751533674.885,-173.828,-201.172,244.141,140.137,0.000
1751533674.889,999.512,999.512,-984.863,-1000.000,0.000
1751533674.893,756.348,887.695,-1000.000,-1000.000,0.000
1751533674.897,-604.004,-428.223,-167.480,-9.766,0.000
1751533674.901,-1000.000,-1000.000,999.512,999.512,0.000
1751533674.905,-185.547,-170.410,470.215,253.906,0.000
1751533674.909,999.512,999.512,-883.301,-982.910,0.000
1751533674.913,991.211,999.512,-1000.000,-1000.000,0.000
1751533674.917,-246.582,-66.895,-218.262,-198.730,0.000
1751533674.921,-1000.000,-1000.000,999.512,999.512,0.000
1751533674.924,-169.922,-221.680,730.469,480.469,0.000
1751533674.928,999.512,981.934,-633.789,-889.160,0.000
1751533674.932,999.512,999.512,-1000.000,-1000.000,0.000
1751533674.936,-11.230,98.633,-205.078,-233.398,0.000
1751533674.940,-1000.000,-1000.000,999.512,999.512,0.000
1751533674.944,-330.566,-481.934,908.203,661.133,0.000
1751533674.948,932.129,864.746,-370.117,-732.910,0.000
1751533674.952,999.512,999.512,-1000.000,-1000.000,0.000
1751533674.956,189.941,208.008,-287.598,-202.148,0.000
1751533674.960,-1000.000,-1000.000,967.773,999.512,0.000
1751533674.964,-518.066,-662.598,999.512,884.766,0.000
1751533674.967,859.375,735.840,-107.910,-416.992,0.000
1751533674.971,999.512,999.512,-1000.000,-1000.000,0.000
1751533674.975,198.730,173.340,-452.637,-292.969,0.000
1751533674.979,-1000.000,-1000.000,871.094,968.750,0.000
1751533674.983,-756.348,-922.852,999.512,999.512,0.000
1751533674.987,625.488,377.441,71.289,-136.719,0.000
1751533674.991,999.512,999.512,-1000.000,-1000.000,0.000
1751533674.995,162.109,220.703,-692.383,-479.492,0.000
1751533674.999,-1000.000,-1000.000,662.109,857.422,0.000
1751533675.003,-977.051,-1000.000,999.512,999.512,0.000
1751533675.006,277.832,75.684,152.832,44.922,0.000
1751533675.010,999.512,999.512,-1000.000,-1000.000,0.000
1751533675.014,280.762,394.043,-930.176,-726.562,0.000
1751533675.018,-979.980,-919.434,357.910,623.535,0.000
1751533675.022,-1000.000,-1000.000,999.512,999.512,0.000
1751533675.026,19.531,-103.516,145.508,158.203,0.000
1751533675.030,999.512,999.512,-1000.000,-1000.000,0.000
1751533675.034,464.844,599.609,-1000.000,-980.469,0.000
1751533675.038,-876.465,-770.996,63.477,287.598,0.000
1751533675.042,-1000.000,-1000.000,999.512,999.512,0.000
1751533675.046,-154.297,-204.590,223.633,143.066,0.000
1751533675.049,999.512,999.512,-995.605,-1000.000,0.000
1751533675.053,723.633,882.324,-1000.000,-1000.000,0.000
1751533675.057,-640.137,-437.012,-139.160,38.086,0.000
1751533675.061,-1000.000,-1000.000,999.512,999.512,0.000
1751533675.065,-191.406,-176.270,440.918,218.750,0.000
1751533675.069,999.512,999.512,-902.832,-995.605,0.000
1751533675.073,953.613,999.512,-1000.000,-1000.000,0.000
1751533675.077,-316.895,-145.508,-221.191,-172.852,0.000
1751533675.081,-1000.000,-1000.000,999.512,999.512,0.000
1751533675.084,-171.387,-231.445,640.137,399.902,0.000
1751533675.088,999.512,974.121,-740.723,-930.664,0.000
1751533675.092,999.512,999.512,-1000.000,-1000.000,0.000
1751533675.096,-52.734,77.148,-203.613,-241.699,0.000
1751533675.100,-1000.000,-1000.000,999.512,999.512,0.000
1751533675.104,-270.508,-414.062,877.441,626.465,0.000
1751533675.108,957.031,899.902,-419.922,-770.996,0.000
1751533675.112,999.512,999.512,-1000.000,-1000.000,0.000
1751533675.116,156.738,214.355,-258.789,-206.055,0.000
1751533675.120,-1000.000,-1000.000,983.887,999.512,0.000
1751533675.124,-476.074,-645.020,999.512,863.770,0.000
1751533675.127,878.906,753.418,-139.160,-454.102,0.000
1751533675.131,999.512,999.512,-1000.000,-1000.000,0.000
1751533675.135,206.055,177.246,-411.133,-240.723,0.000
1751533675.139,-1000.000,-1000.000,895.020,993.164,0.000
1751533675.143,-703.613,-900.391,999.512,999.512,0.000
1751533675.147,690.918,418.457,49.316,-156.250,0.000
1751533675.151,999.512,999.512,-1000.000,-1000.000,0.000
1751533675.155,169.922,189.453,-659.180,-452.148,0.000
1751533675.159,-1000.000,-1000.000,695.801,874.512,0.000
1751533675.163,-930.176,-1000.000,999.512,999.512,0.000
1751533675.167,364.746,130.371,145.996,34.668,0.000
1751533675.170,999.512,999.512,-1000.000,-1000.000,0.000
1751533675.174,238.770,374.023,-897.949,-663.086,0.000
1751533675.178,-1000.000,-932.617,403.809,698.730,0.000
1751533675.182,-1000.000,-1000.000,999.512,999.512,0.000
1751533675.186,72.754,-49.805,149.414,159.180,0.000
1751533675.190,999.512,999.512,-1000.000,-1000.000,0.000
1751533675.194,415.527,583.008,-1000.000,-923.340,0.000
1751533675.198,-906.738,-779.297,115.723,385.254,0.000
1751533675.202,-1000.000,-1000.000,999.512,999.512,0.000
1751533675.206,-110.352,-187.500,214.355,144.043,0.000
1751533675.210,999.512,999.512,-998.535,-1000.000,0.000
1751533675.213,645.020,799.805,-1000.000,-1000.000,0.000
1751533675.217,-723.145,-549.805,-111.328,79.590,0.000
1751533675.221,-1000.000,-1000.000,999.512,999.512,0.000
1751533675.225,-200.684,-176.270,342.285,144.043,0.000
1751533675.229,999.512,999.512,-952.637,-1000.000,0.000
1751533675.233,901.855,999.512,-1000.000,-1000.000,0.000
1751533675.237,-405.762,-142.090,-215.820,-107.422,0.000
1751533675.241,-1000.000,-1000.000,999.512,999.512,0.000
1751533675.245,-174.316,-166.992,500.488,264.648,0.000
1751533675.249,999.512,992.676,-867.676,-985.352,0.000
1751533675.253,999.512,999.512,-1000.000,-1000.000,0.000
1751533675.256,-116.699,110.352,-226.074,-237.793,0.000
1751533675.260,-1000.000,-1000.000,999.512,999.512,0.000
1751533675.264,-170.410,-344.238,726.074,457.520,0.000
1751533675.268,995.605,942.383,-635.742,-909.180,0.000
1751533675.272,999.512,999.512,-1000.000,-1000.000,0.000
1751533675.276,85.449,188.477,-240.723,-228.516,0.000
1751533675.280,-1000.000,-1000.000,999.512,999.512,0.000
1751533675.284,-380.859,-536.621,975.098,746.582,0.000
1751533675.288,917.480,847.656,-251.465,-621.094,0.000
1751533675.292,999.512,999.512,-1000.000,-1000.000,0.000
1751533675.295,214.355,193.359,-370.117,-225.586,0.000
1751533675.299,-1000.000,-1000.000,904.785,987.793,0.000
1751533675.303,-683.594,-803.223,999.512,999.512,0.000
1751533675.307,712.891,564.453,79.590,-117.676,0.000
1751533675.311,999.512,999.512,-1000.000,-1000.000,0.000
1751533675.315,159.668,141.602,-619.629,-420.898,0.000
1751533675.319,-1000.000,-1000.000,737.793,886.719,0.000
1751533675.323,-1000.000,-1000.000,999.512,999.512,0.000
1751533675.327,219.727,18.066,167.969,95.703,0.000
1751533675.331,999.512,999.512,-1000.000,-1000.000,0.000
1751533675.335,249.023,409.180,-875.000,-653.320,0.000
1751533675.338,-1000.000,-935.059,444.336,722.656,0.000
1751533675.342,-1000.000,-1000.000,999.512,999.512,0.000
1751533675.346,96.680,13.184,151.855,156.738,0.000
1751533675.350,999.512,999.512,-1000.000,-1000.000,0.000
1751533675.354,405.273,549.805,-1000.000,-906.250,0.000
1751533675.358,-917.480,-810.547,153.320,410.156,0.000
1751533675.362,-1000.000,-1000.000,999.512,999.512,0.000
1751533675.366,-59.082,-120.117,177.246,146.484,0.000
1751533675.370,999.512,999.512,-1000.000,-1000.000,0.000
1751533675.374,604.980,758.301,-1000.000,-1000.000,0.000
1751533675.378,-756.836,-588.379,-73.242,110.352,0.000
1751533675.381,-1000.000,-1000.000,999.512,999.512,0.000
1751533675.385,-198.242,-174.805,312.500,144.531,0.000
1751533675.389,999.512,999.512,-963.379,-1000.000,0.000
1751533675.393,876.953,999.512,-1000.000,-1000.000,0.000
1751533675.397,-441.895,-115.723,-198.242,-42.969,0.000
1751533675.401,-1000.000,-1000.000,999.512,999.512,0.000
1751533675.405,-176.270,-185.059,506.348,267.578,0.000
1751533675.409,999.512,999.512,-859.863,-975.586,0.000
1751533675.413,999.512,999.512,-1000.000,-1000.000,0.000
1751533675.416,-143.555,-16.602,-221.680,-247.559,0.000
1751533675.420,-1000.000,-1000.000,999.512,999.512,0.000
1751533675.424,-182.617,-308.594,773.438,516.602,0.000
1751533675.428,991.211,940.918,-578.125,-875.488,0.000
1751533675.432,999.512,999.512,-1000.000,-1000.000,0.000
1751533675.436,71.289,199.219,-219.238,-222.656,0.000
1751533675.440,-1000.000,-1000.000,999.512,999.512,0.000
1751533675.444,-407.227,-551.270,974.121,758.789,0.000
1751533675.448,902.344,838.379,-247.070,-607.910,0.000
1751533675.452,999.512,999.512,-1000.000,-1000.000,0.000
1751533675.456,218.750,198.242,-364.258,-230.469,0.000
1751533675.459,-1000.000,-1000.000,933.105,999.512,0.000
1751533675.463,-549.805,-728.516,999.512,913.574,0.000
1751533675.467,845.215,657.227,-79.102,-369.141,0.000
1751533675.471,999.512,999.512,-1000.000,-1000.000,0.000
1751533675.475,193.359,172.852,-544.434,-372.559,0.000
1751533675.479,-1000.000,-1000.000,794.434,922.363,0.000
1751533675.483,-788.086,-903.320,999.512,999.512,0.000
1751533675.487,583.496,405.762,111.816,-70.312,0.000
1751533675.491,999.512,999.512,-1000.000,-1000.000,0.000
1751533675.495,160.156,242.188,-801.270,-561.523,0.000
1751533675.499,-1000.000,-994.141,536.133,794.434,0.000
1751533675.502,-1000.000,-1000.000,999.512,999.512,0.000
1751533675.506,206.543,37.109,151.367,88.379,0.000
1751533675.510,999.512,999.512,-1000.000,-1000.000,0.000
1751533675.514,337.891,475.098,-997.559,-810.547,0.000
1751533675.518,-945.801,-868.164,233.887,527.344,0.000
1751533675.522,-1000.000,-1000.000,999.512,999.512,0.000
1751533675.526,-25.879,-141.602,171.387,157.715,0.000
1751533675.530,999.512,999.512,-1000.000,-1000.000,0.000
1751533675.534,509.277,867.676,-1000.000,-1000.000,0.000
1751533675.538,-782.715,-436.035,4.883,248.535,0.000
1751533675.542,-1000.000,-1000.000,999.512,999.512,0.000
1751533675.545,-211.914,-188.477,332.031,155.273,0.000
1751533675.549,999.512,999.512,-945.312,-1000.000,0.000
1751533675.553,841.797,958.496,-1000.000,-1000.000,0.000
1751533675.557,-497.070,-302.734,-197.266,-70.801,0.000
1751533675.561,-1000.000,-1000.000,999.512,999.512,0.000
1751533675.565,-178.223,-193.848,519.043,283.691,0.000
1751533675.569,999.512,992.188,-851.074,-972.656,0.000
1751533675.573,999.512,999.512,-1000.000,-1000.000,0.000
1751533675.577,-169.922,-29.785,-223.145,-240.234,0.000
1751533675.581,-1000.000,-1000.000,999.512,999.512,0.000
1751533675.584,-170.898,-251.465,742.676,496.582,0.000
1751533675.588,999.023,966.797,-617.676,-886.719,0.000
1751533675.592,999.512,999.512,-1000.000,-1000.000,0.000
1751533675.596,25.879,166.992,-221.191,-230.469,0.000
1751533675.600,-1000.000,-1000.000,999.512,999.512,0.000
1751533675.604,-339.355,-491.699,927.734,686.523,0.000
1751533675.608,931.152,870.117,-336.426,-701.660,0.000
1751533675.612,999.512,999.512,-1000.000,-1000.000,0.000
1751533675.616,204.590,207.031,-325.684,-196.777,0.000
1751533675.620,-1000.000,-1000.000,944.824,999.512,0.000
1751533675.624,-537.109,-675.781,999.512,915.039,0.000
1751533675.627,849.609,722.168,-66.895,-357.910,0.000
1751533675.631,999.512,999.512,-1000.000,-1000.000,0.000
1751533675.635,200.684,177.246,-514.648,-340.820,0.000
1751533675.639,-1000.000,-1000.000,828.125,950.684,0.000
1751533675.643,-716.309,-882.324,999.512,999.512,0.000
1751533675.647,675.781,439.941,63.965,-136.230,0.000
1751533675.651,999.512,999.512,-1000.000,-1000.000,0.000
1751533675.655,169.434,229.492,-743.652,-515.137,0.000
1751533675.659,-1000.000,-1000.000,599.121,840.820,0.000
1751533675.663,-927.246,-1000.000,999.512,999.512,0.000
1751533675.667,361.816,133.789,140.137,13.672,0.000
1751533675.670,999.512,999.512,-1000.000,-1000.000,0.000
1751533675.674,302.734,476.074,-939.453,-711.914,0.000
1751533675.678,-973.633,-865.723,338.867,634.766,0.000
1751533675.682,-1000.000,-1000.000,999.512,999.512,0.000
1751533675.686,62.500,-89.844,143.555,147.461,0.000
1751533675.690,999.512,999.512,-1000.000,-1000.000,0.000
1751533675.694,477.051,625.000,-1000.000,-1000.000,0.000
1751533675.698,-866.211,-742.188,29.785,248.047,0.000
1751533675.702,-1000.000,-1000.000,999.512,999.512,0.000
1751533675.706,-129.883,-201.660,239.746,141.113,0.000
1751533675.709,999.512,999.512,-989.258,-1000.000,0.000
1751533675.713,747.559,897.949,-1000.000,-1000.000,0.000
1751533675.717,-603.027,-411.621,-162.598,1.465,0.000
1751533675.721,-1000.000,-1000.000,999.512,999.512,0.000
1751533675.725,-186.035,-172.363,438.477,218.262,0.000
1751533675.729,999.512,999.512,-906.738,-996.094,0.000
1751533675.733,987.305,999.512,-1000.000,-1000.000,0.000
1751533675.737,-253.906,-90.332,-227.051,-201.172,0.000
1751533675.741,-1000.000,-1000.000,999.512,999.512,0.000
1751533675.745,-170.410,-200.684,651.367,408.203,0.000
1751533675.749,999.512,987.305,-729.004,-930.664,0.000
1751533675.752,999.512,999.512,-1000.000,-1000.000,0.000
1751533675.756,-26.367,90.820,-212.891,-243.164,0.000
1751533675.760,-1000.000,-1000.000,999.512,999.512,0.000
1751533675.764,-238.770,-338.867,864.258,596.191,0.000
1751533675.768,971.191,938.965,-436.523,-800.781,0.000
1751533675.772,999.512,999.512,-1000.000,-1000.000,0.000
1751533675.776,165.527,216.309,-298.340,-213.379,0.000
1751533675.780,-1000.000,-1000.000,976.074,999.512,0.000
1751533675.784,-448.730,-594.238,999.512,806.641,0.000
1751533675.788,894.531,801.758,-185.547,-531.250,0.000
1751533675.791,999.512,999.512,-1000.000,-1000.000,0.000
1751533675.795,209.961,184.570,-448.242,-298.828,0.000
1751533675.799,-1000.000,-1000.000,873.047,972.656,0.000
1751533675.803,-676.758,-847.168,999.512,999.512,0.000
1751533675.807,720.215,482.422,39.551,-181.641,0.000
1751533675.811,999.512,999.512,-1000.000,-1000.000,0.000
1751533675.815,170.410,296.387,-650.879,-424.316,0.000
1751533675.819,-1000.000,-982.422,700.195,886.719,0.000
1751533675.823,-936.035,-1000.000,999.512,999.512,0.000
1751533675.827,351.074,115.234,152.832,44.434,0.000
1751533675.830,999.512,999.512,-1000.000,-1000.000,0.000
1751533675.834,274.414,389.648,-935.547,-728.027,0.000
1751533675.838,-983.398,-924.316,349.121,619.629,0.000
1751533675.842,-1000.000,-1000.000,999.512,999.512,0.000
1751533675.846,42.969,-63.477,145.996,163.086,0.000
1751533675.850,999.512,999.512,-1000.000,-1000.000,0.000
1751533675.854,466.797,614.258,-1000.000,-979.492,0.000
1751533675.858,-879.883,-750.488,69.336,291.016,0.000
1751533675.862,-1000.000,-1000.000,999.512,999.512,0.000
1751533675.866,-99.609,-180.176,211.914,143.066,0.000
1751533675.870,999.512,999.512,-1000.000,-1000.000,0.000
1751533675.873,693.359,869.141,-1000.000,-1000.000,0.000
1751533675.877,-663.086,-449.707,-139.648,38.086,0.000
1751533675.881,-1000.000,-1000.000,999.512,999.512,0.000
1751533675.885,-195.312,-176.758,384.277,174.805,0.000
1751533675.889,999.512,999.512,-932.129,-1000.000,0.000
1751533675.893,931.152,999.512,-1000.000,-1000.000,0.000
1751533675.897,-355.469,-155.273,-226.074,-173.828,0.000
1751533675.901,-1000.000,-1000.000,999.512,999.512,0.000
1751533675.905,-171.387,-206.055,629.395,392.090,0.000
1751533675.909,999.512,982.422,-750.488,-934.082,0.000
1751533675.913,999.512,999.512,-1000.000,-1000.000,0.000
1751533675.916,-61.035,75.684,-207.520,-244.629,0.000
1751533675.920,-1000.000,-1000.000,999.512,999.512,0.000
1751533675.924,-251.953,-418.945,847.168,587.402,0.000
1751533675.928,965.332,897.461,-466.309,-809.082,0.000
1751533675.932,999.512,999.512,-1000.000,-1000.000,0.000
1751533675.936,145.508,216.797,-250.977,-212.402,0.000
1751533675.940,-1000.000,-1000.000,992.676,999.512,0.000
1751533675.944,-444.336,-581.055,999.512,825.684,0.000
1751533675.948,894.043,815.918,-171.875,-509.766,0.000
1751533675.952,999.512,999.512,-1000.000,-1000.000,0.000
1751533675.956,209.961,184.082,-411.133,-245.117,0.000
1751533675.959,-1000.000,-1000.000,895.020,994.141,0.000
1751533675.963,-678.711,-865.723,999.512,999.512,0.000
1751533675.967,718.262,469.727,34.668,-177.246,0.000
1751533675.971,999.512,999.512,-1000.000,-1000.000,0.000
1751533675.975,170.898,177.734,-661.133,-447.754,0.000
1751533675.979,-1000.000,-1000.000,689.941,875.977,0.000
1751533675.983,-931.641,-1000.000,999.512,999.512,0.000
1751533675.987,361.816,106.934,147.949,32.715,0.000
1751533675.991,999.512,999.512,-1000.000,-1000.000,0.000
1751533675.995,244.141,412.598,-894.043,-651.855,0.000
1751533675.999,-1000.000,-920.898,411.133,708.984,0.000
1751533676.002,-1000.000,-1000.000,999.512,999.512,0.000
1751533676.006,70.801,-1.953,147.461,170.410,0.000
1751533676.010,999.512,999.512,-1000.000,-1000.000,0.000
1751533676.014,414.551,549.805,-1000.000,-944.336,0.000
1751533676.018,-906.738,-800.781,95.215,353.027,0.000
1751533676.022,-1000.000,-1000.000,999.512,999.512,0.000
1751533676.026,-115.234,-203.613,209.473,144.043,0.000
1751533676.030,999.512,999.512,-1000.000,-1000.000,0.000
1751533676.034,648.926,828.613,-1000.000,-1000.000,0.000
1751533676.038,-720.215,-512.695,-121.582,65.430,0.000
1751533676.041,-1000.000,-1000.000,999.512,999.512,0.000
1751533676.045,-198.730,-168.457,380.371,179.688,0.000
1751533676.049,999.512,995.117,-934.570,-1000.000,0.000
1751533676.053,915.527,999.512,-1000.000,-1000.000,0.000
1751533676.057,-383.301,-32.715,-211.914,-89.844,0.000
1751533676.061,-1000.000,-1000.000,999.512,999.512,0.000
1751533676.065,-173.828,-235.840,579.102,335.938,0.000
1751533676.069,999.512,991.211,-800.293,-950.684,0.000
1751533676.073,999.512,999.512,-1000.000,-1000.000,0.000
1751533676.077,-104.004,14.648,-213.867,-250.488,0.000
1751533676.081,-1000.000,-1000.000,999.512,999.512,0.000
1751533676.084,-227.051,-369.629,808.594,544.922,0.000
1751533676.088,974.121,914.062,-526.367,-850.586,0.000
1751533676.092,999.512,999.512,-1000.000,-1000.000,0.000
1751533676.096,107.422,219.727,-237.793,-218.262,0.000
1751533676.100,-1000.000,-1000.000,999.512,999.512,0.000
1751533676.104,-432.617,-591.797,991.699,791.016,0.000
1751533676.108,894.531,805.176,-213.379,-560.059,0.000
1751533676.112,999.512,999.512,-1000.000,-1000.000,0.000
1751533676.116,212.402,187.988,-409.180,-249.023,0.000
1751533676.120,-1000.000,-1000.000,896.484,997.559,0.000
1751533676.123,-655.273,-826.172,999.512,999.512,0.000
1751533676.127,743.652,527.344,9.766,-208.496,0.000
1751533676.131,999.512,999.512,-1000.000,-1000.000,0.000
1751533676.135,177.734,192.383,-610.840,-420.898,0.000
1751533676.139,-1000.000,-1000.000,736.328,890.137,0.000
1751533676.143,-883.789,-950.195,999.512,999.512,0.000
1751533676.147,440.430,329.102,154.785,25.391,0.000
1751533676.151,999.512,999.512,-1000.000,-1000.000,0.000
1751533676.155,212.891,318.848,-870.117,-641.113,0.000
1751533676.159,-1000.000,-957.520,447.754,721.680,0.000
1751533676.162,-1000.000,-1000.000,999.512,999.512,0.000
1751533676.166,101.074,2.441,151.367,154.785,0.000
1751533676.170,999.512,999.512,-1000.000,-1000.000,0.000
1751533676.174,396.484,519.043,-1000.000,-907.715,0.000
1751533676.178,-917.480,-831.055,148.438,407.227,0.000
1751533676.182,-1000.000,-1000.000,999.512,999.512,0.000
1751533676.186,-83.984,-189.941,178.223,145.508,0.000
1751533676.190,999.512,999.512,-1000.000,-1000.000,0.000
1751533676.194,616.699,789.551,-1000.000,-1000.000,0.000
1751533676.198,-748.047,-564.453,-82.520,93.262,0.000
1751533676.202,-1000.000,-1000.000,999.512,999.512,0.000
1751533676.205,-204.102,-183.105,333.008,140.625,0.000
1751533676.209,999.512,999.512,-953.125,-1000.000,0.000
1751533676.213,881.348,999.512,-1000.000,-1000.000,0.000
1751533676.217,-437.500,-225.098,-211.914,-110.840,0.000
1751533676.221,-1000.000,-1000.000,999.512,999.512,0.000
1751533676.225,-174.805,-162.598,546.387,318.848,0.000
1751533676.229,999.512,989.258,-830.566,-964.355,0.000
1751533676.233,999.512,999.512,-1000.000,-1000.000,0.000
1751533676.237,-123.535,104.980,-221.680,-231.445,0.000
1751533676.241,-1000.000,-1000.000,999.512,999.512,0.000
1751533676.245,-170.410,-334.961,740.723,476.562,0.000
1751533676.248,996.094,944.824,-618.164,-897.461,0.000
1751533676.252,999.512,999.512,-1000.000,-1000.000,0.000
1751533676.256,78.125,189.941,-231.934,-227.051,0.000
1751533676.260,-1000.000,-1000.000,999.512,999.512,0.000
1751533676.264,-372.559,-528.320,968.750,746.582,0.000
1751533676.268,920.410,852.539,-259.766,-621.582,0.000
1751533676.272,999.512,999.512,-1000.000,-1000.000,0.000
1751533676.276,218.750,201.660,-373.535,-228.027,0.000
1751533676.280,-1000.000,-1000.000,909.668,999.512,0.000
1751533676.284,-624.023,-709.961,999.512,999.512,0.000
1751533676.288,777.832,680.664,29.785,-184.082,0.000
1751533676.291,999.512,999.512,-1000.000,-1000.000,0.000
1751533676.295,183.594,160.156,-588.379,-405.762,0.000
1751533676.299,-1000.000,-1000.000,767.578,910.156,0.000
1751533676.303,-843.750,-1000.000,999.512,999.512,0.000
1751533676.307,502.930,227.051,125.488,-42.480,0.000
1751533676.311,999.512,999.512,-1000.000,-1000.000,0.000
1751533676.315,195.801,300.781,-825.195,-602.051,0.000
1751533676.319,-1000.000,-969.727,506.348,756.836,0.000
1751533676.323,-1000.000,-1000.000,999.512,999.512,0.000
1751533676.327,167.969,-3.906,152.344,104.004,0.000
1751533676.330,999.512,999.512,-1000.000,-1000.000,0.000
1751533676.334,375.488,498.535,-1000.000,-846.680,0.000
1751533676.338,-930.664,-853.027,210.449,479.980,0.000
1751533676.342,-1000.000,-1000.000,999.512,999.512,0.000
1751533676.346,-34.180,-181.641,163.574,149.414,0.000
1751533676.350,999.512,999.512,-1000.000,-1000.000,0.000
1751533676.354,570.801,752.930,-1000.000,-1000.000,0.000
1751533676.358,-787.598,-610.352,-43.457,142.090,0.000
1751533676.362,-1000.000,-1000.000,999.512,999.512,0.000
1751533676.366,-201.660,-184.570,311.523,141.113,0.000
1751533676.370,999.512,999.512,-960.449,-1000.000,0.000
1751533676.373,855.469,995.605,-1000.000,-1000.000,0.000
1751533676.377,-475.586,-235.352,-193.848,-61.523,0.000
1751533676.381,-1000.000,-1000.000,999.512,999.512,0.000
1751533676.385,-176.270,-166.016,515.137,283.203,0.000
1751533676.389,999.512,994.141,-853.516,-973.145,0.000
1751533676.393,999.512,999.512,-1000.000,-1000.000,0.000
1751533676.397,-145.508,52.246,-227.539,-229.004,0.000
1751533676.401,-1000.000,-1000.000,999.512,999.512,0.000
1751533676.405,-171.875,-286.621,698.730,447.266,0.000
1751533676.409,999.512,961.914,-672.852,-914.062,0.000
1751533676.413,999.512,999.512,-1000.000,-1000.000,0.000
1751533676.416,26.855,161.133,-219.727,-229.492,0.000
1751533676.420,-1000.000,-1000.000,999.512,999.512,0.000
1751533676.424,-339.844,-419.922,968.750,744.141,0.000
1751533676.428,930.176,909.668,-260.254,-629.395,0.000
1751533676.432,999.512,999.512,-1000.000,-1000.000,0.000
1751533676.436,210.938,203.613,-337.402,-203.125,0.000
1751533676.440,-1000.000,-1000.000,935.547,999.512,0.000
1751533676.444,-585.449,-789.551,999.512,963.379,0.000
1751533676.448,813.965,579.590,-25.391,-277.832,0.000
1751533676.452,999.512,999.512,-1000.000,-1000.000,0.000
1751533676.455,185.059,180.176,-526.367,-336.426,0.000
1751533676.459,-1000.000,-1000.000,812.988,937.012,0.000
1751533676.463,-846.191,-999.512,999.512,999.512,0.000
1751533676.467,500.977,234.863,134.766,-24.902,0.000
1751533676.471,999.512,999.512,-1000.000,-1000.000,0.000
1751533676.475,187.500,375.488,-770.508,-515.625,0.000
1751533676.479,-1000.000,-932.129,579.590,837.891,0.000
1751533676.483,-1000.000,-1000.000,999.512,999.512,0.000
1751533676.487,169.434,-1.465,154.785,112.793,0.000
1751533676.491,999.512,999.512,-1000.000,-1000.000,0.000
1751533676.494,336.914,457.031,-1000.000,-827.637,0.000
1751533676.498,-954.102,-886.719,224.609,508.789,0.000
1751533676.502,-1000.000,-1000.000,999.512,999.512,0.000
1751533676.506,-10.254,-143.555,150.391,154.297,0.000
1751533676.510,999.512,999.512,-1000.000,-1000.000,0.000
1751533676.514,506.348,713.867,-1000.000,-1000.000,0.000
1751533676.518,-849.609,-647.461,0.488,203.125,0.000
1751533676.522,-1000.000,-1000.000,999.512,999.512,0.000
1751533676.526,-186.523,-194.824,260.742,139.160,0.000
1751533676.530,999.512,999.512,-979.004,-1000.000,0.000
1751533676.534,785.156,927.246,-1000.000,-1000.000,0.000
1751533676.537,-570.312,-360.840,-192.871,-36.133,0.000
1751533676.541,-1000.000,-1000.000,999.512,999.512,0.000
1751533676.545,-182.617,-170.410,472.656,248.047,0.000
1751533676.549,999.512,999.512,-885.254,-984.375,0.000
1751533676.553,999.512,999.512,-1000.000,-1000.000,0.000
1751533676.557,-218.262,-53.711,-221.680,-230.957,0.000
1751533676.561,-1000.000,-1000.000,999.512,999.512,0.000
1751533676.565,-169.434,-222.656,764.648,499.023,0.000
1751533676.569,999.023,978.027,-590.820,-883.301,0.000
1751533676.573,999.512,999.512,-1000.000,-1000.000,0.000
1751533676.576,7.812,140.137,-214.844,-229.980,0.000
1751533676.580,-1000.000,-1000.000,999.512,999.512,0.000
1751533676.584,-330.078,-472.168,923.340,689.941,0.000
1751533676.588,933.594,876.953,-343.262,-697.266,0.000
1751533676.592,999.512,999.512,-1000.000,-1000.000,0.000
1751533676.596,198.242,208.008,-321.289,-199.707,0.000
1751533676.600,-1000.000,-1000.000,952.148,999.512,0.000
1751533676.604,-526.367,-680.664,999.512,894.043,0.000
1751533676.608,855.469,715.820,-100.586,-396.484,0.000
1751533676.612,999.512,999.512,-1000.000,-1000.000,0.000
1751533676.616,198.242,178.223,-487.793,-319.824,0.000
1751533676.619,-1000.000,-1000.000,840.332,948.242,0.000
1751533676.623,-755.859,-871.582,999.512,999.512,0.000
1751533676.627,625.977,456.543,98.145,-80.566,0.000
1751533676.631,999.512,999.512,-1000.000,-1000.000,0.000
1751533676.635,165.039,216.309,-732.422,-513.672,0.000
1751533676.639,-1000.000,-1000.000,618.652,844.727,0.000
1751533676.643,-952.148,-1000.000,999.512,999.512,0.000
1751533676.647,320.801,80.078,150.391,33.203,0.000
1751533676.651,999.512,999.512,-1000.000,-1000.000,0.000
1751533676.655,295.898,434.082,-938.477,-734.375,0.000
1751533676.659,-981.445,-904.297,344.727,612.793,0.000
1751533676.662,-1000.000,-1000.000,999.512,999.512,0.000
1751533676.666,81.543,-39.062,144.043,148.926,0.000
1751533676.670,999.512,999.512,-1000.000,-1000.000,0.000
1751533676.674,463.379,604.004,-1000.000,-992.188,0.000
1751533676.678,-876.465,-757.324,45.410,264.648,0.000
1751533676.682,-1000.000,-1000.000,999.512,999.512,0.000
1751533676.686,-106.934,-186.035,231.445,140.625,0.000
1751533676.690,999.512,999.512,-991.699,-1000.000,0.000
1751533676.694,709.961,844.238,-1000.000,-1000.000,0.000
1751533676.698,-645.508,-486.816,-160.645,0.977,0.000
1751533676.702,-1000.000,-1000.000,999.512,999.512,0.000
1751533676.705,-187.988,-174.316,477.051,260.254,0.000
1751533676.709,999.512,999.512,-876.953,-979.004,0.000
1751533676.713,979.004,999.512,-1000.000,-1000.000,0.000
1751533676.717,-269.531,-112.793,-224.609,-198.242,0.000
1751533676.721,-1000.000,-1000.000,999.512,999.512,0.000
1751533676.725,-171.387,-219.727,618.652,377.930,0.000
1751533676.729,999.512,979.004,-762.207,-945.801,0.000
1751533676.733,999.512,999.512,-1000.000,-1000.000,0.000
1751533676.737,-40.527,87.402,-214.355,-247.559,0.000
1751533676.741,-1000.000,-1000.000,999.512,999.512,0.000
1751533676.745,-227.051,-371.094,821.777,550.781,0.000
1751533676.748,974.609,922.363,-502.441,-845.215,0.000
1751533676.752,999.512,999.512,-1000.000,-1000.000,0.000
1751533676.756,158.691,218.262,-272.949,-221.191,0.000
1751533676.760,-1000.000,-1000.000,991.211,999.512,0.000
1751533676.764,-437.988,-626.465,996.582,752.930,0.000
1751533676.768,898.926,770.508,-213.379,-605.957,0.000
1751533676.772,999.512,999.512,-1000.000,-1000.000,0.000
1751533676.776,212.891,186.523,-439.941,-291.504,0.000
1751533676.780,-1000.000,-1000.000,878.906,979.004,0.000
1751533676.784,-645.508,-810.547,999.512,999.512,0.000
1751533676.787,754.395,533.691,19.043,-207.031,0.000
1751533676.791,999.512,999.512,-1000.000,-1000.000,0.000
1751533676.795,178.711,326.660,-624.512,-403.320,0.000
1751533676.799,-1000.000,-987.305,727.051,904.785,0.000
1751533676.803,-878.418,-1000.000,999.512,999.512,0.000
1751533676.807,445.801,219.238,133.301,-17.090,0.000
1751533676.811,999.512,999.512,-1000.000,-1000.000,0.000
1751533676.815,230.957,357.910,-912.109,-682.617,0.000
1751533676.819,-1000.000,-938.965,380.371,665.527,0.000
1751533676.823,-1000.000,-1000.000,999.512,999.512,0.000
1751533676.827,101.562,-21.484,147.949,142.578,0.000
1751533676.830,999.512,999.512,-1000.000,-1000.000,0.000
1751533676.834,416.504,584.473,-1000.000,-936.035,0.000
1751533676.838,-905.762,-775.391,97.168,357.910,0.000
1751533676.842,-1000.000,-1000.000,999.512,999.512,0.000
1751533676.846,-87.402,-160.645,214.844,144.531,0.000
1751533676.850,999.512,999.512,-999.512,-1000.000,0.000
1751533676.854,663.574,874.023,-1000.000,-1000.000,0.000
1751533676.858,-695.801,-436.035,-112.793,78.613,0.000
1751533676.862,-1000.000,-1000.000,999.512,999.512,0.000
1751533676.866,-198.730,-176.758,379.395,173.828,0.000
1751533676.869,999.512,999.512,-932.129,-1000.000,0.000
1751533676.873,911.133,999.512,-1000.000,-1000.000,0.000
1751533676.877,-391.602,-156.738,-225.098,-148.438,0.000
1751533676.881,-1000.000,-1000.000,999.512,999.512,0.000
1751533676.885,-171.875,-164.062,580.078,348.145,0.000
1751533676.889,999.512,986.328,-800.781,-954.102,0.000
1751533676.893,999.512,999.512,-1000.000,-1000.000,0.000
1751533676.897,-83.008,171.875,-215.820,-238.281,0.000
1751533676.901,-1000.000,-1000.000,999.512,999.512,0.000
1751533676.905,-204.590,-375.488,790.039,511.719,0.000
1751533676.908,984.863,935.059,-548.828,-877.441,0.000
1751533676.912,999.512,999.512,-1000.000,-1000.000,0.000
1751533676.916,101.562,191.895,-269.043,-222.656,0.000
1751533676.920,-1000.000,-1000.000,995.117,999.512,0.000
1751533676.924,-401.855,-541.992,989.258,761.719,0.000
1751533676.928,909.668,845.215,-231.445,-599.121,0.000
1751533676.932,999.512,999.512,-1000.000,-1000.000,0.000
1751533676.936,217.285,193.359,-411.133,-257.324,0.000
1751533676.940,-1000.000,-1000.000,895.996,999.512,0.000
1751533676.944,-610.840,-796.387,999.512,985.352,0.000
1751533676.948,791.992,570.801,-5.371,-250.488,0.000
1751533676.951,999.512,999.512,-1000.000,-1000.000,0.000
1751533676.955,181.152,174.805,-631.836,-429.199,0.000
1751533676.959,-1000.000,-1000.000,714.355,888.672,0.000
1751533676.963,-871.094,-1000.000,999.512,999.512,0.000
1751533676.967,459.473,218.750,132.324,-14.648,0.000
1751533676.971,999.512,999.512,-1000.000,-1000.000,0.000
1751533676.975,217.285,331.055,-881.836,-645.996,0.000
1751533676.979,-1000.000,-961.426,424.316,709.961,0.000
1751533676.983,-1000.000,-1000.000,999.512,999.512,0.000
1751533676.987,136.719,33.203,149.902,145.020,0.000
1751533676.991,999.512,999.512,-1000.000,-1000.000,0.000
1751533676.994,396.973,492.188,-1000.000,-915.527,0.000
1751533676.998,-921.387,-854.492,129.395,392.578,0.000
1751533677.002,-1000.000,-1000.000,999.512,999.512,0.000
1751533677.006,-33.203,-176.270,170.898,145.020,0.000
1751533677.010,999.512,999.512,-1000.000,-1000.000,0.000
1751533677.014,607.910,785.645,-1000.000,-1000.000,0.000
1751533677.018,-748.535,-564.941,-87.891,92.285,0.000
1751533677.022,-1000.000,-1000.000,999.512,999.512,0.000
1751533677.026,-193.359,-176.270,344.727,149.414,0.000
1751533677.030,999.512,999.512,-949.219,-1000.000,0.000
1751533677.033,884.766,999.512,-1000.000,-1000.000,0.000
1751533677.037,-429.199,-141.113,-205.078,-75.195,0.000
1751533677.041,-1000.000,-1000.000,999.512,999.512,0.000
1751533677.045,-175.781,-175.781,507.812,269.043,0.000
1751533677.049,999.512,999.512,-859.375,-978.027,0.000
1751533677.053,999.512,999.512,-1000.000,-1000.000,0.000
1751533677.057,-135.742,-15.137,-222.168,-256.836,0.000
1751533677.061,-1000.000,-1000.000,999.512,999.512,0.000
1751533677.065,-169.434,-260.254,766.602,502.930,0.000
1751533677.069,995.605,960.938,-584.961,-885.254,0.000
1751533677.073,999.512,999.512,-1000.000,-1000.000,0.000
1751533677.076,78.125,195.801,-235.840,-223.145,0.000
1751533677.080,-1000.000,-1000.000,999.512,999.512,0.000
1751533677.084,-361.816,-458.496,988.281,771.973,0.000
1751533677.088,925.781,894.531,-221.680,-589.355,0.000
1751533677.092,999.512,999.512,-1000.000,-1000.000,0.000
1751533677.096,222.168,204.590,-382.812,-235.840,0.000
1751533677.100,-1000.000,-1000.000,911.621,999.512,0.000
1751533677.104,-569.336,-742.188,999.512,991.211,0.000
1751533677.108,832.520,641.602,-3.906,-235.840,0.000
1751533677.112,999.512,999.512,-1000.000,-1000.000,0.000
1751533677.116,185.059,161.133,-597.656,-409.668,0.000
1751533677.119,-1000.000,-1000.000,749.023,898.438,0.000
1751533677.123,-857.422,-986.328,999.512,999.512,0.000
1751533677.127,481.934,257.324,139.160,-6.348,0.000
1751533677.131,999.512,999.512,-1000.000,-1000.000,0.000
1751533677.135,194.336,297.852,-846.680,-616.699,0.000
1751533677.139,-1000.000,-966.309,477.051,742.188,0.000
1751533677.143,-1000.000,-1000.000,999.512,999.512,0.000
1751533677.147,114.258,-28.320,152.344,140.625,0.000
1751533677.151,999.512,999.512,-1000.000,-1000.000,0.000
1751533677.155,380.371,486.816,-1000.000,-894.531,0.000
1751533677.159,-932.617,-867.188,159.668,421.875,0.000
1751533677.162,-1000.000,-1000.000,999.512,999.512,0.000
1751533677.166,-32.227,-163.574,170.410,150.391,0.000
1751533677.170,999.512,999.512,-1000.000,-1000.000,0.000
1751533677.174,593.262,834.473,-1000.000,-1000.000,0.000
1751533677.178,-765.625,-490.234,-37.598,158.203,0.000
1751533677.182,-1000.000,-1000.000,999.512,999.512,0.000
1751533677.186,-187.988,-176.758,296.387,141.602,0.000
1751533677.190,999.512,999.512,-966.797,-1000.000,0.000
1751533677.194,853.027,999.512,-1000.000,-1000.000,0.000
1751533677.198,-475.098,-148.438,-193.359,-42.480,0.000
1751533677.201,-1000.000,-1000.000,999.512,999.512,0.000
1751533677.205,-177.734,-175.293,517.090,281.738,0.000
1751533677.209,999.512,999.512,-849.609,-969.727,0.000
1751533677.213,999.512,999.512,-1000.000,-1000.000,0.000
1751533677.217,-167.969,-17.090,-222.656,-244.141,0.000
1751533677.221,-1000.000,-1000.000,999.512,999.512,0.000
1751533677.225,-169.434,-261.719,751.953,495.605,0.000
1751533677.229,997.070,962.891,-604.004,-887.695,0.000
1751533677.233,999.512,999.512,-1000.000,-1000.000,0.000
1751533677.237,47.363,171.387,-228.027,-228.516,0.000
1751533677.240,-1000.000,-1000.000,999.512,999.512,0.000
1751533677.244,-347.168,-500.488,947.266,712.891,0.000
1751533677.248,929.199,865.723,-300.293,-666.992,0.000
1751533677.252,999.512,999.512,-1000.000,-1000.000,0.000
1751533677.256,216.309,206.543,-338.379,-202.148,0.000
1751533677.260,-1000.000,-1000.000,932.617,999.512,0.000
1751533677.264,-548.828,-671.875,999.512,959.473,0.000
1751533677.268,844.727,726.074,-18.555,-279.785,0.000
1751533677.272,999.512,999.512,-1000.000,-1000.000,0.000
1751533677.276,191.895,163.574,-561.523,-384.766,0.000
1751533677.280,-1000.000,-1000.000,788.574,921.875,0.000
1751533677.283,-808.594,-987.793,999.512,999.512,0.000
1751533677.287,556.641,258.789,103.516,-82.520,0.000
1751533677.291,999.512,999.512,-1000.000,-1000.000,0.000
1751533677.295,160.645,264.160,-803.223,-570.801,0.000
1751533677.299,-1000.000,-994.629,532.227,786.133,0.000
1751533677.303,-995.605,-1000.000,999.512,999.512,0.000
1751533677.307,237.305,73.242,151.367,75.684,0.000
1751533677.311,999.512,999.512,-1000.000,-1000.000,0.000
1751533677.315,341.797,653.320,-971.680,-736.816,0.000
1751533677.319,-956.543,-691.406,283.691,618.164,0.000
1751533677.322,-1000.000,-1000.000,999.512,999.512,0.000
1751533677.326,40.527,-78.613,141.113,150.391,0.000
1751533677.330,999.512,999.512,-1000.000,-1000.000,0.000
1751533677.334,494.141,654.785,-1000.000,-1000.000,0.000
1751533677.338,-854.980,-706.055,-23.438,183.105,0.000
1751533677.342,-1000.000,-1000.000,999.512,999.512,0.000
1751533677.346,-155.273,-195.801,251.465,141.113,0.000
1751533677.350,999.512,999.512,-986.328,-1000.000,0.000
1751533677.354,773.926,933.594,-1000.000,-1000.000,0.000
1751533677.358,-576.660,-349.609,-187.012,-29.785,0.000
1751533677.362,-1000.000,-1000.000,999.512,999.512,0.000
1751533677.365,-183.105,-173.340,521.973,289.551,0.000
1751533677.369,999.512,999.512,-845.215,-966.309,0.000
1751533677.373,999.512,999.512,-1000.000,-1000.000,0.000
1751533677.377,-223.145,-85.938,-222.656,-232.422,0.000
1751533677.381,-1000.000,-1000.000,999.512,999.512,0.000
1751533677.385,-168.945,-283.691,716.309,464.844,0.000
1751533677.389,999.023,949.219,-650.879,-904.297,0.000
1751533677.393,999.512,999.512,-1000.000,-1000.000,0.000
1751533677.397,6.836,148.926,-220.703,-235.840,0.000
1751533677.401,-1000.000,-1000.000,999.512,999.512,0.000
1751533677.405,-307.129,-451.172,916.504,651.367,0.000
1751533677.408,943.848,892.090,-353.027,-743.652,0.000
1751533677.412,999.512,999.512,-1000.000,-1000.000,0.000
1751533677.416,199.219,212.402,-330.566,-202.637,0.000
1751533677.420,-1000.000,-1000.000,945.801,999.512,0.000
1751533677.424,-513.672,-638.184,999.512,895.508,0.000
1751533677.428,863.770,760.742,-89.355,-392.578,0.000
1751533677.432,999.512,999.512,-1000.000,-1000.000,0.000
1751533677.436,198.730,175.293,-515.625,-341.309,0.000
1751533677.440,-1000.000,-1000.000,820.801,944.336,0.000
1751533677.444,-760.742,-909.180,999.512,999.512,0.000
1751533677.448,620.117,387.695,88.379,-111.816,0.000
1751533677.451,999.512,999.512,-1000.000,-1000.000,0.000
1751533677.455,161.133,334.473,-723.145,-484.863,0.000
1751533677.459,-1000.000,-959.961,627.930,854.004,0.000
1751533677.463,-981.445,-1000.000,999.512,999.512,0.000
1751533677.467,267.090,79.102,151.855,55.664,0.000
1751533677.471,999.512,999.512,-1000.000,-1000.000,0.000
1751533677.475,308.105,417.969,-980.957,-783.691,0.000
1751533677.479,-972.656,-912.598,267.090,554.688,0.000
1751533677.483,-1000.000,-1000.000,999.512,999.512,0.000
1751533677.487,45.898,-60.059,145.020,156.250,0.000
1751533677.490,999.512,999.512,-1000.000,-1000.000,0.000
1751533677.494,483.887,621.094,-1000.000,-1000.000,0.000
1751533677.498,-865.723,-742.676,11.230,219.727,0.000
1751533677.502,-1000.000,-1000.000,999.512,999.512,0.000
1751533677.506,-116.699,-179.688,247.070,140.625,0.000
1751533677.510,999.512,999.512,-986.816,-1000.000,0.000
1751533677.514,749.023,894.531,-1000.000,-1000.000,0.000
1751533677.518,-598.633,-411.133,-172.852,-14.160,0.000
1751533677.522,-1000.000,-1000.000,999.512,999.512,0.000
1751533677.526,-187.012,-174.316,427.246,201.172,0.000
1751533677.530,999.512,999.512,-914.062,-1000.000,0.000
1751533677.533,979.004,999.512,-1000.000,-1000.000,0.000
1751533677.537,-269.531,-117.188,-229.980,-220.703,0.000
1751533677.541,-1000.000,-1000.000,999.512,999.512,0.000
1751533677.545,-169.922,-233.398,650.879,401.855,0.000
1751533677.549,999.512,973.633,-728.516,-936.523,0.000
1751533677.553,999.512,999.512,-1000.000,-1000.000,0.000
1751533677.557,-23.438,88.867,-215.820,-242.188,0.000
1751533677.561,-1000.000,-1000.000,999.512,999.512,0.000
1751533677.565,-264.648,-421.387,889.648,626.953,0.000
1751533677.569,960.449,897.949,-399.902,-770.020,0.000
1751533677.572,999.512,999.512,-1000.000,-1000.000,0.000
1751533677.576,179.199,212.891,-302.246,-206.543,0.000
1751533677.580,-1000.000,-1000.000,964.355,999.512,0.000
1751533677.584,-474.609,-656.250,999.512,855.957,0.000
1751533677.588,883.301,743.164,-128.418,-459.961,0.000
1751533677.592,999.512,999.512,-1000.000,-1000.000,0.000
1751533677.596,204.590,174.805,-446.289,-280.762,0.000
1751533677.600,-1000.000,-1000.000,873.047,971.191,0.000
1751533677.604,-722.656,-910.156,999.512,999.512,0.000
1751533677.608,667.969,401.367,75.195,-130.371,0.000
1751533677.612,999.512,999.512,-1000.000,-1000.000,0.000
1751533677.615,169.434,208.496,-721.680,-500.977,0.000
1751533677.619,-1000.000,-1000.000,626.953,847.168,0.000
1751533677.623,-928.711,-1000.000,999.512,999.512,0.000
1751533677.627,361.816,123.535,143.066,27.832,0.000
1751533677.631,999.512,999.512,-1000.000,-1000.000,0.000
1751533677.635,280.762,399.902,-946.289,-740.723,0.000
1751533677.639,-985.840,-928.223,326.660,602.051,0.000
1751533677.643,-1000.000,-1000.000,999.512,999.512,0.000
1751533677.647,76.660,16.113,146.973,163.574,0.000
1751533677.651,999.512,999.512,-1000.000,-1000.000,0.000
1751533677.654,469.238,704.102,-1000.000,-955.078,0.000
1751533677.658,-873.047,-623.047,74.707,332.031,0.000
1751533677.662,-1000.000,-1000.000,999.512,999.512,0.000
1751533677.666,-107.910,-195.312,218.750,140.625,0.000
